# E (eV) pdos(E) 
 -5.873  0.000E+00
 -5.863  0.288E-03
 -5.853  0.114E-02
 -5.843  0.256E-02
 -5.833  0.454E-02
 -5.823  0.706E-02
 -5.813  0.101E-01
 -5.803  0.137E-01
 -5.793  0.178E-01
 -5.783  0.224E-01
 -5.773  0.276E-01
 -5.763  0.332E-01
 -5.753  0.394E-01
 -5.743  0.460E-01
 -5.733  0.532E-01
 -5.723  0.606E-01
 -5.713  0.688E-01
 -5.703  0.772E-01
 -5.693  0.862E-01
 -5.683  0.956E-01
 -5.673  0.105E+00
 -5.663  0.116E+00
 -5.653  0.126E+00
 -5.643  0.137E+00
 -5.633  0.149E+00
 -5.623  0.161E+00
 -5.613  0.173E+00
 -5.603  0.170E+00
 -5.593  0.164E+00
 -5.583  0.159E+00
 -5.573  0.154E+00
 -5.563  0.151E+00
 -5.553  0.150E+00
 -5.543  0.149E+00
 -5.533  0.149E+00
 -5.523  0.151E+00
 -5.513  0.153E+00
 -5.503  0.155E+00
 -5.493  0.157E+00
 -5.483  0.160E+00
 -5.473  0.162E+00
 -5.463  0.164E+00
 -5.453  0.166E+00
 -5.443  0.168E+00
 -5.433  0.171E+00
 -5.423  0.173E+00
 -5.413  0.175E+00
 -5.403  0.178E+00
 -5.393  0.180E+00
 -5.383  0.182E+00
 -5.373  0.184E+00
 -5.363  0.187E+00
 -5.353  0.189E+00
 -5.343  0.191E+00
 -5.333  0.194E+00
 -5.323  0.196E+00
 -5.313  0.198E+00
 -5.303  0.200E+00
 -5.293  0.204E+00
 -5.283  0.206E+00
 -5.273  0.208E+00
 -5.263  0.210E+00
 -5.253  0.212E+00
 -5.243  0.216E+00
 -5.233  0.218E+00
 -5.223  0.220E+00
 -5.213  0.222E+00
 -5.203  0.224E+00
 -5.193  0.228E+00
 -5.183  0.230E+00
 -5.173  0.232E+00
 -5.163  0.234E+00
 -5.153  0.236E+00
 -5.143  0.238E+00
 -5.133  0.240E+00
 -5.123  0.242E+00
 -5.113  0.244E+00
 -5.103  0.246E+00
 -5.093  0.248E+00
 -5.083  0.248E+00
 -5.073  0.250E+00
 -5.063  0.252E+00
 -5.053  0.252E+00
 -5.043  0.254E+00
 -5.033  0.254E+00
 -5.023  0.256E+00
 -5.013  0.256E+00
 -5.003  0.256E+00
 -4.993  0.258E+00
 -4.983  0.258E+00
 -4.973  0.258E+00
 -4.963  0.258E+00
 -4.953  0.260E+00
 -4.943  0.260E+00
 -4.933  0.260E+00
 -4.923  0.260E+00
 -4.913  0.260E+00
 -4.903  0.260E+00
 -4.893  0.262E+00
 -4.883  0.262E+00
 -4.873  0.264E+00
 -4.863  0.264E+00
 -4.853  0.266E+00
 -4.843  0.268E+00
 -4.833  0.270E+00
 -4.823  0.270E+00
 -4.813  0.272E+00
 -4.803  0.274E+00
 -4.793  0.276E+00
 -4.783  0.276E+00
 -4.773  0.278E+00
 -4.763  0.280E+00
 -4.753  0.280E+00
 -4.743  0.282E+00
 -4.733  0.284E+00
 -4.723  0.286E+00
 -4.713  0.288E+00
 -4.703  0.288E+00
 -4.693  0.290E+00
 -4.683  0.292E+00
 -4.673  0.294E+00
 -4.663  0.294E+00
 -4.653  0.296E+00
 -4.643  0.298E+00
 -4.633  0.300E+00
 -4.623  0.300E+00
 -4.613  0.302E+00
 -4.603  0.304E+00
 -4.593  0.306E+00
 -4.583  0.308E+00
 -4.573  0.308E+00
 -4.563  0.310E+00
 -4.553  0.312E+00
 -4.543  0.314E+00
 -4.533  0.316E+00
 -4.523  0.316E+00
 -4.513  0.318E+00
 -4.503  0.320E+00
 -4.493  0.322E+00
 -4.483  0.324E+00
 -4.473  0.326E+00
 -4.463  0.326E+00
 -4.453  0.328E+00
 -4.443  0.330E+00
 -4.433  0.332E+00
 -4.423  0.334E+00
 -4.413  0.336E+00
 -4.403  0.336E+00
 -4.393  0.338E+00
 -4.383  0.340E+00
 -4.373  0.342E+00
 -4.363  0.344E+00
 -4.353  0.346E+00
 -4.343  0.348E+00
 -4.333  0.350E+00
 -4.323  0.350E+00
 -4.313  0.352E+00
 -4.303  0.354E+00
 -4.293  0.356E+00
 -4.283  0.358E+00
 -4.273  0.358E+00
 -4.263  0.360E+00
 -4.253  0.362E+00
 -4.243  0.362E+00
 -4.233  0.364E+00
 -4.223  0.366E+00
 -4.213  0.368E+00
 -4.203  0.370E+00
 -4.193  0.370E+00
 -4.183  0.372E+00
 -4.173  0.374E+00
 -4.163  0.376E+00
 -4.153  0.378E+00
 -4.143  0.382E+00
 -4.133  0.384E+00
 -4.123  0.386E+00
 -4.113  0.388E+00
 -4.103  0.390E+00
 -4.093  0.392E+00
 -4.083  0.394E+00
 -4.073  0.396E+00
 -4.063  0.398E+00
 -4.053  0.402E+00
 -4.043  0.404E+00
 -4.033  0.406E+00
 -4.023  0.408E+00
 -4.013  0.412E+00
 -4.003  0.414E+00
 -3.993  0.416E+00
 -3.983  0.420E+00
 -3.973  0.422E+00
 -3.963  0.424E+00
 -3.953  0.428E+00
 -3.943  0.430E+00
 -3.933  0.432E+00
 -3.923  0.436E+00
 -3.913  0.438E+00
 -3.903  0.442E+00
 -3.893  0.446E+00
 -3.883  0.450E+00
 -3.873  0.454E+00
 -3.863  0.458E+00
 -3.853  0.462E+00
 -3.843  0.468E+00
 -3.833  0.472E+00
 -3.823  0.480E+00
 -3.813  0.490E+00
 -3.803  0.500E+00
 -3.793  0.510E+00
 -3.783  0.520E+00
 -3.773  0.528E+00
 -3.763  0.536E+00
 -3.753  0.544E+00
 -3.743  0.552E+00
 -3.733  0.560E+00
 -3.723  0.566E+00
 -3.713  0.572E+00
 -3.703  0.578E+00
 -3.693  0.584E+00
 -3.683  0.590E+00
 -3.673  0.594E+00
 -3.663  0.598E+00
 -3.653  0.602E+00
 -3.643  0.606E+00
 -3.633  0.610E+00
 -3.623  0.612E+00
 -3.613  0.614E+00
 -3.603  0.616E+00
 -3.593  0.618E+00
 -3.583  0.620E+00
 -3.573  0.620E+00
 -3.563  0.620E+00
 -3.553  0.620E+00
 -3.543  0.620E+00
 -3.533  0.618E+00
 -3.523  0.618E+00
 -3.513  0.616E+00
 -3.503  0.614E+00
 -3.493  0.612E+00
 -3.483  0.608E+00
 -3.473  0.606E+00
 -3.463  0.602E+00
 -3.453  0.598E+00
 -3.443  0.592E+00
 -3.433  0.588E+00
 -3.423  0.582E+00
 -3.413  0.576E+00
 -3.403  0.570E+00
 -3.393  0.564E+00
 -3.383  0.558E+00
 -3.373  0.552E+00
 -3.363  0.562E+00
 -3.353  0.570E+00
 -3.343  0.580E+00
 -3.333  0.588E+00
 -3.323  0.598E+00
 -3.313  0.604E+00
 -3.303  0.612E+00
 -3.293  0.616E+00
 -3.283  0.620E+00
 -3.273  0.622E+00
 -3.263  0.624E+00
 -3.253  0.624E+00
 -3.243  0.624E+00
 -3.233  0.622E+00
 -3.223  0.620E+00
 -3.213  0.616E+00
 -3.203  0.610E+00
 -3.193  0.604E+00
 -3.183  0.598E+00
 -3.173  0.590E+00
 -3.163  0.580E+00
 -3.153  0.570E+00
 -3.143  0.564E+00
 -3.133  0.558E+00
 -3.123  0.554E+00
 -3.113  0.548E+00
 -3.103  0.544E+00
 -3.093  0.538E+00
 -3.083  0.534E+00
 -3.073  0.530E+00
 -3.063  0.526E+00
 -3.053  0.520E+00
 -3.043  0.516E+00
 -3.033  0.512E+00
 -3.023  0.508E+00
 -3.013  0.504E+00
 -3.003  0.500E+00
 -2.993  0.498E+00
 -2.983  0.494E+00
 -2.973  0.490E+00
 -2.963  0.486E+00
 -2.953  0.482E+00
 -2.943  0.480E+00
 -2.933  0.476E+00
 -2.923  0.474E+00
 -2.913  0.470E+00
 -2.903  0.468E+00
 -2.893  0.464E+00
 -2.883  0.462E+00
 -2.873  0.460E+00
 -2.863  0.456E+00
 -2.853  0.454E+00
 -2.843  0.452E+00
 -2.833  0.450E+00
 -2.823  0.448E+00
 -2.813  0.446E+00
 -2.803  0.444E+00
 -2.793  0.442E+00
 -2.783  0.440E+00
 -2.773  0.440E+00
 -2.763  0.438E+00
 -2.753  0.436E+00
 -2.743  0.436E+00
 -2.733  0.434E+00
 -2.723  0.434E+00
 -2.713  0.432E+00
 -2.703  0.432E+00
 -2.693  0.430E+00
 -2.683  0.430E+00
 -2.673  0.428E+00
 -2.663  0.426E+00
 -2.653  0.424E+00
 -2.643  0.422E+00
 -2.633  0.420E+00
 -2.623  0.418E+00
 -2.613  0.416E+00
 -2.603  0.420E+00
 -2.593  0.422E+00
 -2.583  0.424E+00
 -2.573  0.426E+00
 -2.563  0.426E+00
 -2.553  0.428E+00
 -2.543  0.428E+00
 -2.533  0.430E+00
 -2.523  0.430E+00
 -2.513  0.430E+00
 -2.503  0.430E+00
 -2.493  0.428E+00
 -2.483  0.428E+00
 -2.473  0.426E+00
 -2.463  0.424E+00
 -2.453  0.422E+00
 -2.443  0.420E+00
 -2.433  0.418E+00
 -2.423  0.416E+00
 -2.413  0.412E+00
 -2.403  0.408E+00
 -2.393  0.404E+00
 -2.383  0.400E+00
 -2.373  0.396E+00
 -2.363  0.392E+00
 -2.353  0.386E+00
 -2.343  0.382E+00
 -2.333  0.376E+00
 -2.323  0.370E+00
 -2.313  0.364E+00
 -2.303  0.358E+00
 -2.293  0.350E+00
 -2.283  0.344E+00
 -2.273  0.336E+00
 -2.263  0.328E+00
 -2.253  0.320E+00
 -2.243  0.312E+00
 -2.233  0.302E+00
 -2.223  0.294E+00
 -2.213  0.284E+00
 -2.203  0.274E+00
 -2.193  0.264E+00
 -2.183  0.151E+00
 -2.173  0.143E+00
 -2.163  0.136E+00
 -2.153  0.129E+00
 -2.143  0.122E+00
 -2.133  0.115E+00
 -2.123  0.108E+00
 -2.113  0.102E+00
 -2.103  0.958E-01
 -2.093  0.896E-01
 -2.083  0.838E-01
 -2.073  0.780E-01
 -2.063  0.724E-01
 -2.053  0.670E-01
 -2.043  0.618E-01
 -2.033  0.566E-01
 -2.023  0.518E-01
 -2.013  0.470E-01
 -2.003  0.426E-01
 -1.993  0.382E-01
 -1.983  0.338E-01
 -1.973  0.298E-01
 -1.963  0.260E-01
 -1.953  0.222E-01
 -1.943  0.186E-01
 -1.933  0.152E-01
 -1.923  0.120E-01
 -1.913  0.886E-02
 -1.903  0.594E-02
 -1.893  0.318E-02
 -1.883  0.568E-03
 -1.873  0.000E+00
 -1.863  0.000E+00
 -1.853  0.000E+00
 -1.843  0.000E+00
 -1.833  0.000E+00
 -1.823  0.000E+00
 -1.813  0.000E+00
 -1.803  0.000E+00
 -1.793  0.000E+00
 -1.783  0.000E+00
 -1.773  0.000E+00
 -1.763  0.000E+00
 -1.753  0.000E+00
 -1.743  0.000E+00
 -1.733  0.000E+00
 -1.723  0.000E+00
 -1.713  0.000E+00
 -1.703  0.000E+00
 -1.693  0.000E+00
 -1.683  0.000E+00
 -1.673  0.000E+00
 -1.663  0.000E+00
 -1.653  0.000E+00
 -1.643  0.000E+00
 -1.633  0.000E+00
 -1.623  0.000E+00
 -1.613  0.000E+00
 -1.603  0.000E+00
 -1.593  0.504E-03
 -1.583  0.246E-02
 -1.573  0.448E-02
 -1.563  0.658E-02
 -1.553  0.876E-02
 -1.543  0.110E-01
 -1.533  0.134E-01
 -1.523  0.158E-01
 -1.513  0.183E-01
 -1.503  0.208E-01
 -1.493  0.234E-01
 -1.483  0.262E-01
 -1.473  0.290E-01
 -1.463  0.318E-01
 -1.453  0.348E-01
 -1.443  0.378E-01
 -1.433  0.410E-01
 -1.423  0.440E-01
 -1.413  0.474E-01
 -1.403  0.506E-01
 -1.393  0.540E-01
 -1.383  0.576E-01
 -1.373  0.610E-01
 -1.363  0.646E-01
 -1.353  0.684E-01
 -1.343  0.720E-01
 -1.333  0.760E-01
 -1.323  0.798E-01
 -1.313  0.838E-01
 -1.303  0.878E-01
 -1.293  0.920E-01
 -1.283  0.962E-01
 -1.273  0.100E+00
 -1.263  0.105E+00
 -1.253  0.109E+00
 -1.243  0.114E+00
 -1.233  0.118E+00
 -1.223  0.123E+00
 -1.213  0.127E+00
 -1.203  0.132E+00
 -1.193  0.137E+00
 -1.183  0.142E+00
 -1.173  0.147E+00
 -1.163  0.152E+00
 -1.153  0.157E+00
 -1.143  0.162E+00
 -1.133  0.167E+00
 -1.123  0.270E+00
 -1.113  0.280E+00
 -1.103  0.290E+00
 -1.093  0.298E+00
 -1.083  0.308E+00
 -1.073  0.316E+00
 -1.063  0.324E+00
 -1.053  0.332E+00
 -1.043  0.340E+00
 -1.033  0.348E+00
 -1.023  0.354E+00
 -1.013  0.362E+00
 -1.003  0.368E+00
 -0.993  0.374E+00
 -0.983  0.380E+00
 -0.973  0.386E+00
 -0.963  0.390E+00
 -0.953  0.396E+00
 -0.943  0.400E+00
 -0.933  0.404E+00
 -0.923  0.408E+00
 -0.913  0.412E+00
 -0.903  0.416E+00
 -0.893  0.418E+00
 -0.883  0.422E+00
 -0.873  0.424E+00
 -0.863  0.426E+00
 -0.853  0.428E+00
 -0.843  0.430E+00
 -0.833  0.430E+00
 -0.823  0.432E+00
 -0.813  0.436E+00
 -0.803  0.442E+00
 -0.793  0.450E+00
 -0.783  0.476E+00
 -0.773  0.500E+00
 -0.763  0.520E+00
 -0.753  0.538E+00
 -0.743  0.554E+00
 -0.733  0.568E+00
 -0.723  0.584E+00
 -0.713  0.598E+00
 -0.703  0.610E+00
 -0.693  0.622E+00
 -0.683  0.630E+00
 -0.673  0.636E+00
 -0.663  0.642E+00
 -0.653  0.644E+00
 -0.643  0.646E+00
 -0.633  0.646E+00
 -0.623  0.644E+00
 -0.613  0.640E+00
 -0.603  0.634E+00
 -0.593  0.624E+00
 -0.583  0.614E+00
 -0.573  0.604E+00
 -0.563  0.594E+00
 -0.553  0.588E+00
 -0.543  0.580E+00
 -0.533  0.570E+00
 -0.523  0.560E+00
 -0.513  0.548E+00
 -0.503  0.536E+00
 -0.493  0.522E+00
 -0.483  0.506E+00
 -0.473  0.490E+00
 -0.463  0.472E+00
 -0.453  0.454E+00
 -0.443  0.434E+00
 -0.433  0.412E+00
 -0.423  0.390E+00
 -0.413  0.378E+00
 -0.403  0.372E+00
 -0.393  0.366E+00
 -0.383  0.360E+00
 -0.373  0.356E+00
 -0.363  0.350E+00
 -0.353  0.344E+00
 -0.343  0.340E+00
 -0.333  0.334E+00
 -0.323  0.330E+00
 -0.313  0.324E+00
 -0.303  0.320E+00
 -0.293  0.316E+00
 -0.283  0.310E+00
 -0.273  0.306E+00
 -0.263  0.302E+00
 -0.253  0.298E+00
 -0.243  0.294E+00
 -0.233  0.290E+00
 -0.223  0.288E+00
 -0.213  0.284E+00
 -0.203  0.280E+00
 -0.193  0.278E+00
 -0.183  0.274E+00
 -0.173  0.272E+00
 -0.163  0.268E+00
 -0.153  0.266E+00
 -0.143  0.262E+00
 -0.133  0.260E+00
 -0.123  0.258E+00
 -0.113  0.256E+00
 -0.103  0.254E+00
 -0.093  0.252E+00
 -0.083  0.250E+00
 -0.073  0.248E+00
 -0.063  0.246E+00
 -0.053  0.244E+00
 -0.043  0.244E+00
 -0.033  0.242E+00
 -0.023  0.240E+00
 -0.013  0.238E+00
 -0.003  0.236E+00
  0.007  0.236E+00
  0.017  0.234E+00
  0.027  0.232E+00
  0.037  0.230E+00
  0.047  0.230E+00
  0.057  0.228E+00
  0.067  0.226E+00
  0.077  0.224E+00
  0.087  0.224E+00
  0.097  0.222E+00
  0.107  0.220E+00
  0.117  0.220E+00
  0.127  0.218E+00
  0.137  0.216E+00
  0.147  0.216E+00
  0.157  0.214E+00
  0.167  0.212E+00
  0.177  0.212E+00
  0.187  0.210E+00
  0.197  0.208E+00
  0.207  0.208E+00
  0.217  0.206E+00
  0.227  0.204E+00
  0.237  0.204E+00
  0.247  0.202E+00
  0.257  0.200E+00
  0.267  0.200E+00
  0.277  0.198E+00
  0.287  0.197E+00
  0.297  0.196E+00
  0.307  0.195E+00
  0.317  0.193E+00
  0.327  0.192E+00
  0.337  0.191E+00
  0.347  0.190E+00
  0.357  0.189E+00
  0.367  0.187E+00
  0.377  0.186E+00
  0.387  0.185E+00
  0.397  0.184E+00
  0.407  0.182E+00
  0.417  0.181E+00
  0.427  0.180E+00
  0.437  0.179E+00
  0.447  0.178E+00
  0.457  0.176E+00
  0.467  0.175E+00
  0.477  0.174E+00
  0.487  0.173E+00
  0.497  0.172E+00
  0.507  0.171E+00
  0.517  0.169E+00
  0.527  0.168E+00
  0.537  0.167E+00
  0.547  0.166E+00
  0.557  0.165E+00
  0.567  0.164E+00
  0.577  0.163E+00
  0.587  0.162E+00
  0.597  0.161E+00
  0.607  0.160E+00
  0.617  0.158E+00
  0.627  0.157E+00
  0.637  0.156E+00
  0.647  0.155E+00
  0.657  0.154E+00
  0.667  0.153E+00
  0.677  0.152E+00
  0.687  0.151E+00
  0.697  0.150E+00
  0.707  0.149E+00
  0.717  0.148E+00
  0.727  0.147E+00
  0.737  0.146E+00
  0.747  0.144E+00
  0.757  0.142E+00
  0.767  0.140E+00
  0.777  0.138E+00
  0.787  0.137E+00
  0.797  0.135E+00
  0.807  0.133E+00
  0.817  0.131E+00
  0.827  0.130E+00
  0.837  0.128E+00
  0.847  0.127E+00
  0.857  0.125E+00
  0.867  0.124E+00
  0.877  0.122E+00
  0.887  0.121E+00
  0.897  0.120E+00
  0.907  0.118E+00
  0.917  0.117E+00
  0.927  0.116E+00
  0.937  0.115E+00
  0.947  0.113E+00
  0.957  0.112E+00
  0.967  0.111E+00
  0.977  0.110E+00
  0.987  0.109E+00
  0.997  0.109E+00
  1.007  0.108E+00
  1.017  0.107E+00
  1.027  0.106E+00
  1.037  0.106E+00
  1.047  0.105E+00
  1.057  0.104E+00
  1.067  0.104E+00
  1.077  0.103E+00
  1.087  0.103E+00
  1.097  0.102E+00
  1.107  0.102E+00
  1.117  0.102E+00
  1.127  0.101E+00
  1.137  0.101E+00
  1.147  0.100E+00
  1.157  0.100E+00
  1.167  0.996E-01
  1.177  0.992E-01
  1.187  0.990E-01
  1.197  0.986E-01
  1.207  0.982E-01
  1.217  0.978E-01
  1.227  0.974E-01
  1.237  0.970E-01
  1.247  0.966E-01
  1.257  0.962E-01
  1.267  0.960E-01
  1.277  0.956E-01
  1.287  0.952E-01
  1.297  0.948E-01
  1.307  0.944E-01
  1.317  0.940E-01
  1.327  0.938E-01
  1.337  0.934E-01
  1.347  0.930E-01
  1.357  0.926E-01
  1.367  0.922E-01
  1.377  0.920E-01
  1.387  0.916E-01
  1.397  0.912E-01
  1.407  0.908E-01
  1.417  0.904E-01
  1.427  0.902E-01
  1.437  0.898E-01
  1.447  0.894E-01
  1.457  0.890E-01
  1.467  0.888E-01
  1.477  0.884E-01
  1.487  0.880E-01
  1.497  0.876E-01
  1.507  0.874E-01
  1.517  0.870E-01
  1.527  0.866E-01
  1.537  0.862E-01
  1.547  0.858E-01
  1.557  0.856E-01
  1.567  0.852E-01
  1.577  0.848E-01
  1.587  0.844E-01
  1.597  0.842E-01
  1.607  0.838E-01
  1.617  0.834E-01
  1.627  0.830E-01
  1.637  0.826E-01
  1.647  0.824E-01
  1.657  0.820E-01
  1.667  0.816E-01
  1.677  0.812E-01
  1.687  0.808E-01
  1.697  0.804E-01
  1.707  0.802E-01
  1.717  0.798E-01
  1.727  0.794E-01
  1.737  0.790E-01
  1.747  0.786E-01
  1.757  0.784E-01
  1.767  0.784E-01
  1.777  0.782E-01
  1.787  0.784E-01
  1.797  0.788E-01
  1.807  0.798E-01
  1.817  0.812E-01
  1.827  0.836E-01
  1.837  0.866E-01
  1.847  0.906E-01
  1.857  0.952E-01
  1.867  0.990E-01
  1.877  0.102E+00
  1.887  0.104E+00
  1.897  0.104E+00
  1.907  0.104E+00
  1.917  0.102E+00
  1.927  0.100E+00
  1.937  0.101E+00
  1.947  0.102E+00
  1.957  0.103E+00
  1.967  0.104E+00
  1.977  0.105E+00
  1.987  0.106E+00
  1.997  0.107E+00
  2.007  0.108E+00
  2.017  0.109E+00
  2.027  0.110E+00
  2.037  0.110E+00
  2.047  0.111E+00
  2.057  0.112E+00
  2.067  0.113E+00
  2.077  0.113E+00
  2.087  0.114E+00
  2.097  0.114E+00
  2.107  0.115E+00
  2.117  0.115E+00
  2.127  0.115E+00
  2.137  0.116E+00
  2.147  0.116E+00
  2.157  0.116E+00
  2.167  0.116E+00
  2.177  0.116E+00
  2.187  0.115E+00
  2.197  0.115E+00
  2.207  0.114E+00
  2.217  0.114E+00
  2.227  0.113E+00
  2.237  0.112E+00
  2.247  0.112E+00
  2.257  0.111E+00
  2.267  0.110E+00
  2.277  0.109E+00
  2.287  0.107E+00
  2.297  0.106E+00
  2.307  0.104E+00
  2.317  0.104E+00
  2.327  0.103E+00
  2.337  0.104E+00
  2.347  0.106E+00
  2.357  0.107E+00
  2.367  0.108E+00
  2.377  0.107E+00
  2.387  0.105E+00
  2.397  0.100E+00
  2.407  0.986E-01
  2.417  0.982E-01
  2.427  0.978E-01
  2.437  0.976E-01
  2.447  0.972E-01
  2.457  0.970E-01
  2.467  0.966E-01
  2.477  0.964E-01
  2.487  0.960E-01
  2.497  0.958E-01
  2.507  0.956E-01
  2.517  0.952E-01
  2.527  0.950E-01
  2.537  0.948E-01
  2.547  0.946E-01
  2.557  0.942E-01
  2.567  0.940E-01
  2.577  0.938E-01
  2.587  0.936E-01
  2.597  0.934E-01
  2.607  0.932E-01
  2.617  0.930E-01
  2.627  0.928E-01
  2.637  0.926E-01
  2.647  0.924E-01
  2.657  0.922E-01
  2.667  0.922E-01
  2.677  0.920E-01
  2.687  0.918E-01
  2.697  0.916E-01
  2.707  0.916E-01
  2.717  0.914E-01
  2.727  0.914E-01
  2.737  0.912E-01
  2.747  0.912E-01
  2.757  0.910E-01
  2.767  0.910E-01
  2.777  0.910E-01
  2.787  0.908E-01
  2.797  0.908E-01
  2.807  0.908E-01
  2.817  0.908E-01
  2.827  0.912E-01
  2.837  0.918E-01
  2.847  0.926E-01
  2.857  0.938E-01
  2.867  0.950E-01
  2.877  0.926E-01
  2.887  0.942E-01
  2.897  0.962E-01
  2.907  0.880E-01
  2.917  0.878E-01
  2.927  0.878E-01
  2.937  0.876E-01
  2.947  0.874E-01
  2.957  0.874E-01
  2.967  0.872E-01
  2.977  0.872E-01
  2.987  0.870E-01
  2.997  0.870E-01
  3.007  0.868E-01
  3.017  0.868E-01
  3.027  0.866E-01
  3.037  0.866E-01
  3.047  0.866E-01
  3.057  0.864E-01
  3.067  0.864E-01
  3.077  0.864E-01
  3.087  0.864E-01
  3.097  0.864E-01
  3.107  0.862E-01
  3.117  0.862E-01
  3.127  0.862E-01
  3.137  0.862E-01
  3.147  0.862E-01
  3.157  0.862E-01
  3.167  0.862E-01
  3.177  0.862E-01
  3.187  0.862E-01
  3.197  0.862E-01
  3.207  0.862E-01
  3.217  0.862E-01
  3.227  0.862E-01
  3.237  0.862E-01
  3.247  0.862E-01
  3.257  0.862E-01
  3.267  0.862E-01
  3.277  0.862E-01
  3.287  0.862E-01
  3.297  0.862E-01
  3.307  0.864E-01
  3.317  0.864E-01
  3.327  0.864E-01
  3.337  0.862E-01
  3.347  0.858E-01
  3.357  0.856E-01
  3.367  0.852E-01
  3.377  0.848E-01
  3.387  0.844E-01
  3.397  0.842E-01
  3.407  0.838E-01
  3.417  0.834E-01
  3.427  0.830E-01
  3.437  0.826E-01
  3.447  0.822E-01
  3.457  0.818E-01
  3.467  0.814E-01
  3.477  0.808E-01
  3.487  0.804E-01
  3.497  0.800E-01
  3.507  0.796E-01
  3.517  0.792E-01
  3.527  0.786E-01
  3.537  0.782E-01
  3.547  0.778E-01
  3.557  0.772E-01
  3.567  0.768E-01
  3.577  0.762E-01
  3.587  0.758E-01
  3.597  0.754E-01
  3.607  0.748E-01
  3.617  0.744E-01
  3.627  0.738E-01
  3.637  0.734E-01
  3.647  0.728E-01
  3.657  0.724E-01
  3.667  0.718E-01
  3.677  0.714E-01
  3.687  0.710E-01
  3.697  0.704E-01
  3.707  0.700E-01
  3.717  0.694E-01
  3.727  0.690E-01
  3.737  0.684E-01
  3.747  0.680E-01
  3.757  0.674E-01
  3.767  0.670E-01
  3.777  0.664E-01
  3.787  0.660E-01
  3.797  0.656E-01
  3.807  0.650E-01
  3.817  0.646E-01
  3.827  0.640E-01
  3.837  0.636E-01
  3.847  0.630E-01
  3.857  0.626E-01
  3.867  0.620E-01
  3.877  0.616E-01
  3.887  0.610E-01
  3.897  0.606E-01
  3.907  0.600E-01
  3.917  0.596E-01
  3.927  0.590E-01
  3.937  0.586E-01
  3.947  0.580E-01
  3.957  0.576E-01
  3.967  0.570E-01
  3.977  0.566E-01
  3.987  0.560E-01
  3.997  0.556E-01
  4.007  0.550E-01
  4.017  0.546E-01
  4.027  0.540E-01
  4.037  0.536E-01
  4.047  0.528E-01
  4.057  0.520E-01
  4.067  0.512E-01
  4.077  0.504E-01
  4.087  0.496E-01
  4.097  0.488E-01
  4.107  0.482E-01
  4.117  0.474E-01
  4.127  0.468E-01
  4.137  0.460E-01
  4.147  0.454E-01
  4.157  0.446E-01
  4.167  0.440E-01
  4.177  0.434E-01
  4.187  0.428E-01
  4.197  0.422E-01
  4.207  0.416E-01
  4.217  0.410E-01
  4.227  0.404E-01
  4.237  0.398E-01
  4.247  0.394E-01
  4.257  0.388E-01
  4.267  0.384E-01
  4.277  0.378E-01
  4.287  0.374E-01
  4.297  0.370E-01
  4.307  0.366E-01
  4.317  0.362E-01
  4.327  0.358E-01
  4.337  0.356E-01
  4.347  0.352E-01
  4.357  0.348E-01
  4.367  0.346E-01
  4.377  0.342E-01
  4.387  0.340E-01
  4.397  0.338E-01
  4.407  0.334E-01
  4.417  0.332E-01
  4.427  0.328E-01
  4.437  0.318E-01
  4.447  0.310E-01
  4.457  0.302E-01
  4.467  0.294E-01
  4.477  0.286E-01
  4.487  0.278E-01
  4.497  0.270E-01
  4.507  0.262E-01
  4.517  0.254E-01
  4.527  0.248E-01
  4.537  0.240E-01
  4.547  0.234E-01
  4.557  0.226E-01
  4.567  0.220E-01
  4.577  0.214E-01
  4.587  0.208E-01
  4.597  0.202E-01
  4.607  0.195E-01
  4.617  0.189E-01
  4.627  0.184E-01
  4.637  0.178E-01
  4.647  0.173E-01
  4.657  0.167E-01
  4.667  0.162E-01
  4.677  0.157E-01
  4.687  0.152E-01
  4.697  0.147E-01
  4.707  0.142E-01
  4.717  0.138E-01
  4.727  0.133E-01
  4.737  0.129E-01
  4.747  0.125E-01
  4.757  0.120E-01
  4.767  0.116E-01
  4.777  0.113E-01
  4.787  0.109E-01
  4.797  0.105E-01
  4.807  0.102E-01
  4.817  0.982E-02
  4.827  0.948E-02
  4.837  0.916E-02
  4.847  0.884E-02
  4.857  0.854E-02
  4.867  0.824E-02
  4.877  0.794E-02
  4.887  0.766E-02
  4.897  0.740E-02
  4.907  0.714E-02
  4.917  0.688E-02
  4.927  0.662E-02
  4.937  0.638E-02
  4.947  0.616E-02
  4.957  0.592E-02
  4.967  0.570E-02
  4.977  0.548E-02
  4.987  0.528E-02
  4.997  0.508E-02
  5.007  0.488E-02
  5.017  0.468E-02
  5.027  0.450E-02
  5.037  0.432E-02
  5.047  0.414E-02
  5.057  0.396E-02
  5.067  0.380E-02
  5.077  0.364E-02
  5.087  0.348E-02
  5.097  0.334E-02
  5.107  0.318E-02
  5.117  0.304E-02
  5.127  0.290E-02
  5.137  0.276E-02
  5.147  0.264E-02
  5.157  0.252E-02
  5.167  0.238E-02
  5.177  0.228E-02
  5.187  0.216E-02
  5.197  0.204E-02
  5.207  0.194E-02
  5.217  0.184E-02
  5.227  0.174E-02
  5.237  0.165E-02
  5.247  0.156E-02
  5.257  0.147E-02
  5.267  0.138E-02
  5.277  0.130E-02
  5.287  0.123E-02
  5.297  0.115E-02
  5.307  0.108E-02
  5.317  0.101E-02
  5.327  0.948E-03
  5.337  0.886E-03
  5.347  0.828E-03
  5.357  0.772E-03
  5.367  0.718E-03
  5.377  0.666E-03
  5.387  0.618E-03
  5.397  0.572E-03
  5.407  0.530E-03
  5.417  0.490E-03
  5.427  0.450E-03
  5.437  0.414E-03
  5.447  0.380E-03
  5.457  0.348E-03
  5.467  0.320E-03
  5.477  0.292E-03
  5.487  0.266E-03
  5.497  0.242E-03
  5.507  0.220E-03
  5.517  0.199E-03
  5.527  0.180E-03
  5.537  0.163E-03
  5.547  0.147E-03
  5.557  0.133E-03
  5.567  0.120E-03
  5.577  0.108E-03
  5.587  0.980E-04
  5.597  0.888E-04
  5.607  0.806E-04
  5.617  0.734E-04
  5.627  0.674E-04
  5.637  0.618E-04
  5.647  0.566E-04
  5.657  0.518E-04
  5.667  0.472E-04
  5.677  0.428E-04
  5.687  0.388E-04
  5.697  0.350E-04
  5.707  0.314E-04
  5.717  0.282E-04
  5.727  0.250E-04
  5.737  0.222E-04
  5.747  0.196E-04
  5.757  0.172E-04
  5.767  0.150E-04
  5.777  0.131E-04
  5.787  0.112E-04
  5.797  0.962E-05
  5.807  0.814E-05
  5.817  0.684E-05
  5.827  0.568E-05
  5.837  0.464E-05
  5.847  0.376E-05
  5.857  0.298E-05
  5.867  0.234E-05
  5.877  0.178E-05
  5.887  0.132E-05
  5.897  0.950E-06
  5.907  0.656E-06
  5.917  0.430E-06
  5.927  0.262E-06
  5.937  0.146E-06
  5.947  0.698E-07
  5.957  0.264E-07
  5.967  0.616E-08
  5.977  0.328E-09
  5.987  0.000E+00
  5.997  0.000E+00
  6.007  0.000E+00
  6.017  0.000E+00
  6.027  0.000E+00
  6.037  0.000E+00
  6.047  0.000E+00
  6.057  0.000E+00
  6.067  0.000E+00
  6.077  0.000E+00
  6.087  0.000E+00
  6.097  0.000E+00
  6.107  0.000E+00
  6.117  0.000E+00
  6.127  0.000E+00
  6.137  0.000E+00
  6.147  0.000E+00
  6.157  0.000E+00
  6.167  0.000E+00
  6.177  0.000E+00
  6.187  0.000E+00
  6.197  0.000E+00
  6.207  0.000E+00
  6.217  0.000E+00
  6.227  0.000E+00
  6.237  0.000E+00
  6.247  0.000E+00
  6.257  0.000E+00
  6.267  0.000E+00
  6.277  0.000E+00
  6.287  0.000E+00
  6.297  0.000E+00
  6.307  0.000E+00
  6.317  0.000E+00
  6.327  0.000E+00
  6.337  0.000E+00
  6.347  0.000E+00
  6.357  0.000E+00
  6.367  0.000E+00
  6.377  0.000E+00
  6.387  0.000E+00
  6.397  0.000E+00
  6.407  0.000E+00
  6.417  0.000E+00
  6.427  0.000E+00
  6.437  0.000E+00
  6.447  0.000E+00
  6.457  0.000E+00
  6.467  0.141E-02
  6.477  0.400E-02
  6.487  0.650E-02
  6.497  0.892E-02
  6.507  0.112E-01
  6.517  0.135E-01
  6.527  0.156E-01
  6.537  0.176E-01
  6.547  0.196E-01
  6.557  0.214E-01
  6.567  0.232E-01
  6.577  0.250E-01
  6.587  0.266E-01
  6.597  0.282E-01
  6.607  0.296E-01
  6.617  0.310E-01
  6.627  0.322E-01
  6.637  0.334E-01
  6.647  0.346E-01
  6.657  0.356E-01
  6.667  0.366E-01
  6.677  0.374E-01
  6.687  0.382E-01
  6.697  0.390E-01
  6.707  0.396E-01
  6.717  0.402E-01
  6.727  0.408E-01
  6.737  0.412E-01
  6.747  0.416E-01
  6.757  0.418E-01
  6.767  0.430E-01
  6.777  0.448E-01
  6.787  0.466E-01
  6.797  0.484E-01
  6.807  0.502E-01
  6.817  0.522E-01
  6.827  0.540E-01
  6.837  0.560E-01
  6.847  0.576E-01
  6.857  0.594E-01
  6.867  0.610E-01
  6.877  0.626E-01
  6.887  0.642E-01
  6.897  0.658E-01
  6.907  0.672E-01
  6.917  0.686E-01
  6.927  0.698E-01
  6.937  0.710E-01
  6.947  0.722E-01
  6.957  0.734E-01
  6.967  0.746E-01
  6.977  0.756E-01
  6.987  0.768E-01
  6.997  0.780E-01
  7.007  0.790E-01
  7.017  0.802E-01
  7.027  0.812E-01
  7.037  0.820E-01
  7.047  0.830E-01
  7.057  0.838E-01
  7.067  0.846E-01
  7.077  0.854E-01
  7.087  0.860E-01
  7.097  0.868E-01
  7.107  0.878E-01
  7.117  0.892E-01
  7.127  0.906E-01
  7.137  0.920E-01
  7.147  0.934E-01
  7.157  0.948E-01
  7.167  0.962E-01
  7.177  0.976E-01
  7.187  0.990E-01
  7.197  0.100E+00
  7.207  0.102E+00
  7.217  0.103E+00
  7.227  0.104E+00
  7.237  0.106E+00
  7.247  0.107E+00
  7.257  0.108E+00
  7.267  0.109E+00
  7.277  0.111E+00
  7.287  0.112E+00
  7.297  0.113E+00
  7.307  0.114E+00
  7.317  0.116E+00
  7.327  0.117E+00
  7.337  0.118E+00
  7.347  0.119E+00
  7.357  0.121E+00
  7.367  0.122E+00
  7.377  0.123E+00
  7.387  0.124E+00
  7.397  0.126E+00
  7.407  0.127E+00
  7.417  0.130E+00
  7.427  0.134E+00
  7.437  0.137E+00
  7.447  0.141E+00
  7.457  0.144E+00
  7.467  0.148E+00
  7.477  0.152E+00
  7.487  0.156E+00
  7.497  0.160E+00
  7.507  0.165E+00
  7.517  0.169E+00
  7.527  0.173E+00
  7.537  0.178E+00
  7.547  0.182E+00
  7.557  0.187E+00
  7.567  0.192E+00
  7.577  0.197E+00
  7.587  0.202E+00
  7.597  0.206E+00
  7.607  0.212E+00
  7.617  0.216E+00
  7.627  0.222E+00
  7.637  0.226E+00
  7.647  0.232E+00
  7.657  0.238E+00
  7.667  0.242E+00
  7.677  0.248E+00
  7.687  0.254E+00
  7.697  0.260E+00
  7.707  0.266E+00
  7.717  0.270E+00
  7.727  0.276E+00
  7.737  0.282E+00
  7.747  0.288E+00
  7.757  0.294E+00
  7.767  0.300E+00
  7.777  0.308E+00
  7.787  0.314E+00
  7.797  0.322E+00
  7.807  0.328E+00
  7.817  0.336E+00
  7.827  0.344E+00
  7.837  0.352E+00
  7.847  0.360E+00
  7.857  0.368E+00
  7.867  0.378E+00
  7.877  0.386E+00
  7.887  0.394E+00
  7.897  0.404E+00
  7.907  0.412E+00
  7.917  0.422E+00
  7.927  0.430E+00
  7.937  0.440E+00
  7.947  0.448E+00
  7.957  0.458E+00
  7.967  0.466E+00
  7.977  0.474E+00
  7.987  0.482E+00
  7.997  0.490E+00
  8.007  0.496E+00
  8.017  0.500E+00
  8.027  0.504E+00
  8.037  0.508E+00
  8.047  0.510E+00
  8.057  0.512E+00
  8.067  0.514E+00
  8.077  0.514E+00
  8.087  0.514E+00
  8.097  0.514E+00
  8.107  0.512E+00
  8.117  0.514E+00
  8.127  0.514E+00
  8.137  0.516E+00
  8.147  0.518E+00
  8.157  0.520E+00
  8.167  0.522E+00
  8.177  0.522E+00
  8.187  0.524E+00
  8.197  0.524E+00
  8.207  0.526E+00
  8.217  0.526E+00
  8.227  0.528E+00
  8.237  0.528E+00
  8.247  0.528E+00
  8.257  0.528E+00
  8.267  0.530E+00
  8.277  0.530E+00
  8.287  0.530E+00
  8.297  0.522E+00
  8.307  0.516E+00
  8.317  0.510E+00
  8.327  0.504E+00
  8.337  0.498E+00
  8.347  0.492E+00
  8.357  0.488E+00
  8.367  0.484E+00
  8.377  0.480E+00
  8.387  0.476E+00
  8.397  0.472E+00
  8.407  0.468E+00
  8.417  0.464E+00
  8.427  0.460E+00
  8.437  0.458E+00
  8.447  0.454E+00
  8.457  0.450E+00
  8.467  0.448E+00
  8.477  0.446E+00
  8.487  0.444E+00
  8.497  0.442E+00
  8.507  0.438E+00
  8.517  0.426E+00
  8.527  0.416E+00
  8.537  0.406E+00
  8.547  0.396E+00
  8.557  0.388E+00
  8.567  0.380E+00
  8.577  0.372E+00
  8.587  0.362E+00
  8.597  0.354E+00
  8.607  0.344E+00
  8.617  0.336E+00
  8.627  0.304E+00
  8.637  0.296E+00
  8.647  0.288E+00
  8.657  0.280E+00
  8.667  0.270E+00
  8.677  0.262E+00
  8.687  0.254E+00
  8.697  0.246E+00
  8.707  0.240E+00
  8.717  0.232E+00
  8.727  0.224E+00
  8.737  0.216E+00
  8.747  0.210E+00
  8.757  0.202E+00
  8.767  0.195E+00
  8.777  0.188E+00
  8.787  0.181E+00
  8.797  0.175E+00
  8.807  0.168E+00
  8.817  0.162E+00
  8.827  0.156E+00
  8.837  0.149E+00
  8.847  0.143E+00
  8.857  0.137E+00
  8.867  0.131E+00
  8.877  0.126E+00
  8.887  0.120E+00
  8.897  0.115E+00
  8.907  0.109E+00
  8.917  0.104E+00
  8.927  0.984E-01
  8.937  0.928E-01
  8.947  0.876E-01
  8.957  0.884E-01
  8.967  0.892E-01
  8.977  0.900E-01
  8.987  0.910E-01
  8.997  0.918E-01
  9.007  0.926E-01
  9.017  0.934E-01
  9.027  0.944E-01
  9.037  0.952E-01
  9.047  0.962E-01
  9.057  0.972E-01
  9.067  0.980E-01
  9.077  0.990E-01
  9.087  0.100E+00
  9.097  0.101E+00
  9.107  0.102E+00
  9.117  0.103E+00
  9.127  0.105E+00
  9.137  0.106E+00
  9.147  0.107E+00
  9.157  0.108E+00
  9.167  0.110E+00
  9.177  0.111E+00
  9.187  0.113E+00
  9.197  0.114E+00
  9.207  0.116E+00
  9.217  0.118E+00
  9.227  0.119E+00
  9.237  0.121E+00
  9.247  0.123E+00
  9.257  0.125E+00
  9.267  0.127E+00
  9.277  0.129E+00
  9.287  0.131E+00
  9.297  0.133E+00
  9.307  0.136E+00
  9.317  0.139E+00
  9.327  0.142E+00
  9.337  0.145E+00
  9.347  0.148E+00
  9.357  0.152E+00
  9.367  0.161E+00
  9.377  0.170E+00
  9.387  0.179E+00
  9.397  0.189E+00
  9.407  0.200E+00
  9.417  0.210E+00
  9.427  0.222E+00
  9.437  0.234E+00
  9.447  0.246E+00
  9.457  0.258E+00
  9.467  0.272E+00
  9.477  0.286E+00
  9.487  0.300E+00
  9.497  0.314E+00
  9.507  0.330E+00
  9.517  0.346E+00
  9.527  0.362E+00
  9.537  0.378E+00
  9.547  0.396E+00
  9.557  0.412E+00
  9.567  0.432E+00
  9.577  0.450E+00
  9.587  0.468E+00
  9.597  0.488E+00
  9.607  0.488E+00
  9.617  0.476E+00
  9.627  0.466E+00
  9.637  0.456E+00
  9.647  0.448E+00
  9.657  0.444E+00
  9.667  0.440E+00
  9.677  0.438E+00
  9.687  0.438E+00
  9.697  0.482E+00
  9.707  0.522E+00
  9.717  0.530E+00
  9.727  0.508E+00
  9.737  0.452E+00
  9.747  0.362E+00
  9.757  0.266E+00
  9.767  0.204E+00
  9.777  0.170E+00
  9.787  0.155E+00
  9.797  0.149E+00
  9.807  0.147E+00
  9.817  0.143E+00
  9.827  0.140E+00
  9.837  0.138E+00
  9.847  0.136E+00
  9.857  0.135E+00
  9.867  0.133E+00
  9.877  0.132E+00
  9.887  0.131E+00
  9.897  0.130E+00
  9.907  0.129E+00
  9.917  0.128E+00
  9.927  0.127E+00
  9.937  0.127E+00
  9.947  0.126E+00
  9.957  0.125E+00
  9.967  0.124E+00
  9.977  0.124E+00
  9.987  0.123E+00
  9.997  0.122E+00
 10.007  0.122E+00
 10.017  0.121E+00
 10.027  0.120E+00
 10.037  0.120E+00
 10.047  0.119E+00
 10.057  0.118E+00
 10.067  0.118E+00
 10.077  0.117E+00
 10.087  0.116E+00
 10.097  0.115E+00
 10.107  0.114E+00
 10.117  0.114E+00
 10.127  0.113E+00
 10.137  0.112E+00
 10.147  0.111E+00
 10.157  0.110E+00
 10.167  0.109E+00
 10.177  0.108E+00
 10.187  0.107E+00
 10.197  0.106E+00
 10.207  0.105E+00
 10.217  0.104E+00
 10.227  0.104E+00
 10.237  0.103E+00
 10.247  0.102E+00
 10.257  0.102E+00
 10.267  0.101E+00
 10.277  0.101E+00
 10.287  0.101E+00
 10.297  0.100E+00
 10.307  0.100E+00
 10.317  0.100E+00
 10.327  0.100E+00
 10.337  0.100E+00
 10.347  0.100E+00
 10.357  0.101E+00
 10.367  0.101E+00
 10.377  0.101E+00
 10.387  0.102E+00
 10.397  0.102E+00
 10.407  0.103E+00
 10.417  0.103E+00
 10.427  0.104E+00
 10.437  0.104E+00
 10.447  0.105E+00
 10.457  0.106E+00
 10.467  0.107E+00
 10.477  0.108E+00
 10.487  0.109E+00
 10.497  0.110E+00
 10.507  0.111E+00
 10.517  0.112E+00
 10.527  0.113E+00
 10.537  0.114E+00
 10.547  0.115E+00
 10.557  0.116E+00
 10.567  0.117E+00
 10.577  0.118E+00
 10.587  0.119E+00
 10.597  0.119E+00
 10.607  0.120E+00
 10.617  0.121E+00
 10.627  0.121E+00
 10.637  0.122E+00
 10.647  0.122E+00
 10.657  0.123E+00
 10.667  0.123E+00
 10.677  0.123E+00
 10.687  0.124E+00
 10.697  0.124E+00
 10.707  0.124E+00
 10.717  0.123E+00
 10.727  0.123E+00
 10.737  0.124E+00
 10.747  0.124E+00
 10.757  0.124E+00
 10.767  0.124E+00
 10.777  0.124E+00
 10.787  0.124E+00
 10.797  0.123E+00
 10.807  0.124E+00
 10.817  0.121E+00
 10.827  0.119E+00
 10.837  0.117E+00
 10.847  0.114E+00
 10.857  0.112E+00
 10.867  0.110E+00
 10.877  0.108E+00
 10.887  0.106E+00
 10.897  0.104E+00
 10.907  0.102E+00
 10.917  0.101E+00
 10.927  0.988E-01
 10.937  0.972E-01
 10.947  0.956E-01
 10.957  0.942E-01
 10.967  0.926E-01
 10.977  0.912E-01
 10.987  0.900E-01
 10.997  0.886E-01
 11.007  0.874E-01
 11.017  0.862E-01
 11.027  0.852E-01
 11.037  0.840E-01
 11.047  0.832E-01
 11.057  0.822E-01
 11.067  0.812E-01
 11.077  0.804E-01
 11.087  0.796E-01
 11.097  0.790E-01
 11.107  0.782E-01
 11.117  0.776E-01
 11.127  0.770E-01
 11.137  0.764E-01
 11.147  0.760E-01
 11.157  0.756E-01
 11.167  0.752E-01
 11.177  0.748E-01
 11.187  0.744E-01
 11.197  0.742E-01
 11.207  0.740E-01
 11.217  0.738E-01
 11.227  0.736E-01
 11.237  0.734E-01
 11.247  0.734E-01
 11.257  0.732E-01
 11.267  0.732E-01
 11.277  0.732E-01
 11.287  0.734E-01
 11.297  0.734E-01
 11.307  0.736E-01
 11.317  0.736E-01
 11.327  0.866E-01
 11.337  0.103E+00
 11.347  0.118E+00
 11.357  0.133E+00
 11.367  0.146E+00
 11.377  0.158E+00
 11.387  0.169E+00
 11.397  0.178E+00
 11.407  0.186E+00
 11.417  0.193E+00
 11.427  0.198E+00
 11.437  0.200E+00
 11.447  0.202E+00
 11.457  0.202E+00
 11.467  0.199E+00
 11.477  0.195E+00
 11.487  0.188E+00
 11.497  0.216E+00
 11.507  0.210E+00
 11.517  0.206E+00
 11.527  0.202E+00
 11.537  0.197E+00
 11.547  0.192E+00
 11.557  0.188E+00
 11.567  0.184E+00
 11.577  0.180E+00
 11.587  0.176E+00
 11.597  0.172E+00
 11.607  0.168E+00
 11.617  0.164E+00
 11.627  0.161E+00
 11.637  0.162E+00
 11.647  0.159E+00
 11.657  0.157E+00
 11.667  0.154E+00
 11.677  0.152E+00
 11.687  0.150E+00
 11.697  0.148E+00
 11.707  0.146E+00
 11.717  0.144E+00
 11.727  0.142E+00
 11.737  0.141E+00
 11.747  0.140E+00
 11.757  0.138E+00
 11.767  0.137E+00
 11.777  0.136E+00
 11.787  0.135E+00
 11.797  0.135E+00
 11.807  0.134E+00
 11.817  0.134E+00
 11.827  0.133E+00
 11.837  0.133E+00
 11.847  0.133E+00
 11.857  0.133E+00
 11.867  0.133E+00
 11.877  0.134E+00
 11.887  0.134E+00
 11.897  0.135E+00
 11.907  0.135E+00
 11.917  0.136E+00
 11.927  0.137E+00
 11.937  0.138E+00
 11.947  0.139E+00
 11.957  0.140E+00
 11.967  0.142E+00
 11.977  0.143E+00
 11.987  0.145E+00
 11.997  0.146E+00
 12.007  0.148E+00
 12.017  0.150E+00
 12.027  0.153E+00
 12.037  0.155E+00
 12.047  0.157E+00
 12.057  0.160E+00
 12.067  0.162E+00
 12.077  0.165E+00
 12.087  0.168E+00
 12.097  0.171E+00
 12.107  0.174E+00
 12.117  0.177E+00
 12.127  0.181E+00
 12.137  0.185E+00
 12.147  0.188E+00
 12.157  0.192E+00
 12.167  0.197E+00
 12.177  0.200E+00
 12.187  0.202E+00
 12.197  0.204E+00
 12.207  0.204E+00
 12.217  0.206E+00
 12.227  0.208E+00
 12.237  0.208E+00
 12.247  0.210E+00
 12.257  0.210E+00
 12.267  0.212E+00
 12.277  0.214E+00
 12.287  0.214E+00
 12.297  0.216E+00
 12.307  0.218E+00
 12.317  0.220E+00
 12.327  0.222E+00
 12.337  0.224E+00
 12.347  0.226E+00
 12.357  0.228E+00
 12.367  0.230E+00
 12.377  0.234E+00
 12.387  0.236E+00
 12.397  0.240E+00
 12.407  0.238E+00
 12.417  0.226E+00
 12.427  0.204E+00
 12.437  0.178E+00
 12.447  0.147E+00
 12.457  0.128E+00
 12.467  0.127E+00
 12.477  0.125E+00
 12.487  0.124E+00
 12.497  0.122E+00
 12.507  0.121E+00
 12.517  0.120E+00
 12.527  0.119E+00
 12.537  0.117E+00
 12.547  0.116E+00
 12.557  0.115E+00
 12.567  0.114E+00
 12.577  0.113E+00
 12.587  0.112E+00
 12.597  0.111E+00
 12.607  0.109E+00
 12.617  0.108E+00
 12.627  0.107E+00
 12.637  0.106E+00
 12.647  0.105E+00
 12.657  0.104E+00
 12.667  0.103E+00
 12.677  0.102E+00
 12.687  0.101E+00
 12.697  0.100E+00
 12.707  0.992E-01
 12.717  0.982E-01
 12.727  0.972E-01
 12.737  0.962E-01
 12.747  0.952E-01
 12.757  0.942E-01
 12.767  0.932E-01
 12.777  0.922E-01
 12.787  0.912E-01
 12.797  0.902E-01
 12.807  0.892E-01
 12.817  0.882E-01
 12.827  0.872E-01
 12.837  0.862E-01
 12.847  0.852E-01
 12.857  0.842E-01
 12.867  0.832E-01
 12.877  0.822E-01
 12.887  0.812E-01
 12.897  0.802E-01
 12.907  0.792E-01
 12.917  0.784E-01
 12.927  0.774E-01
 12.937  0.764E-01
 12.947  0.754E-01
 12.957  0.744E-01
 12.967  0.736E-01
 12.977  0.726E-01
 12.987  0.716E-01
 12.997  0.706E-01
 13.007  0.698E-01
 13.017  0.688E-01
 13.027  0.678E-01
 13.037  0.670E-01
 13.047  0.660E-01
 13.057  0.650E-01
 13.067  0.642E-01
 13.077  0.632E-01
 13.087  0.624E-01
 13.097  0.614E-01
 13.107  0.604E-01
 13.117  0.596E-01
 13.127  0.586E-01
 13.137  0.578E-01
 13.147  0.570E-01
 13.157  0.560E-01
 13.167  0.552E-01
 13.177  0.542E-01
 13.187  0.534E-01
 13.197  0.526E-01
 13.207  0.516E-01
 13.217  0.508E-01
 13.227  0.500E-01
 13.237  0.492E-01
 13.247  0.484E-01
 13.257  0.476E-01
 13.267  0.468E-01
 13.277  0.462E-01
 13.287  0.454E-01
 13.297  0.448E-01
 13.307  0.440E-01
 13.317  0.434E-01
 13.327  0.428E-01
 13.337  0.420E-01
 13.347  0.414E-01
 13.357  0.408E-01
 13.367  0.402E-01
 13.377  0.396E-01
 13.387  0.390E-01
 13.397  0.384E-01
 13.407  0.380E-01
 13.417  0.374E-01
 13.427  0.368E-01
 13.437  0.364E-01
 13.447  0.358E-01
 13.457  0.352E-01
 13.467  0.348E-01
 13.477  0.342E-01
 13.487  0.338E-01
 13.497  0.334E-01
 13.507  0.328E-01
 13.517  0.324E-01
 13.527  0.322E-01
 13.537  0.320E-01
 13.547  0.320E-01
 13.557  0.318E-01
 13.567  0.316E-01
 13.577  0.316E-01
 13.587  0.314E-01
 13.597  0.314E-01
 13.607  0.312E-01
 13.617  0.310E-01
 13.627  0.310E-01
 13.637  0.308E-01
 13.647  0.306E-01
 13.657  0.304E-01
 13.667  0.302E-01
 13.677  0.300E-01
 13.687  0.298E-01
 13.697  0.296E-01
 13.707  0.292E-01
 13.717  0.290E-01
 13.727  0.288E-01
 13.737  0.284E-01
 13.747  0.280E-01
 13.757  0.276E-01
 13.767  0.272E-01
 13.777  0.268E-01
 13.787  0.262E-01
 13.797  0.256E-01
 13.807  0.252E-01
 13.817  0.246E-01
 13.827  0.238E-01
 13.837  0.232E-01
 13.847  0.224E-01
 13.857  0.216E-01
 13.867  0.208E-01
 13.877  0.199E-01
 13.887  0.190E-01
 13.897  0.180E-01
 13.907  0.169E-01
 13.917  0.158E-01
 13.927  0.147E-01
 13.937  0.134E-01
 13.947  0.122E-01
 13.957  0.112E-01
 13.967  0.111E-01
 13.977  0.109E-01
 13.987  0.108E-01
 13.997  0.107E-01
 14.007  0.106E-01
 14.017  0.104E-01
 14.027  0.103E-01
 14.037  0.102E-01
 14.047  0.101E-01
 14.057  0.994E-02
 14.067  0.984E-02
 14.077  0.972E-02
 14.087  0.960E-02
 14.097  0.950E-02
 14.107  0.938E-02
 14.117  0.928E-02
 14.127  0.916E-02
 14.137  0.906E-02
 14.147  0.896E-02
 14.157  0.884E-02
 14.167  0.874E-02
 14.177  0.864E-02
 14.187  0.854E-02
 14.197  0.844E-02
 14.207  0.834E-02
 14.217  0.826E-02
 14.227  0.816E-02
 14.237  0.806E-02
 14.247  0.798E-02
 14.257  0.788E-02
 14.267  0.780E-02
 14.277  0.770E-02
 14.287  0.762E-02
 14.297  0.754E-02
 14.307  0.744E-02
 14.317  0.736E-02
 14.327  0.728E-02
 14.337  0.720E-02
 14.347  0.714E-02
 14.357  0.706E-02
 14.367  0.698E-02
 14.377  0.690E-02
 14.387  0.684E-02
 14.397  0.676E-02
 14.407  0.670E-02
 14.417  0.662E-02
 14.427  0.656E-02
 14.437  0.650E-02
 14.447  0.642E-02
 14.457  0.636E-02
 14.467  0.630E-02
 14.477  0.634E-02
 14.487  0.640E-02
 14.497  0.644E-02
 14.507  0.650E-02
 14.517  0.656E-02
 14.527  0.662E-02
 14.537  0.668E-02
 14.547  0.672E-02
 14.557  0.678E-02
 14.567  0.684E-02
 14.577  0.690E-02
 14.587  0.696E-02
 14.597  0.702E-02
 14.607  0.708E-02
 14.617  0.714E-02
 14.627  0.720E-02
 14.637  0.726E-02
 14.647  0.732E-02
 14.657  0.738E-02
 14.667  0.744E-02
 14.677  0.750E-02
 14.687  0.756E-02
 14.697  0.762E-02
 14.707  0.768E-02
 14.717  0.774E-02
 14.727  0.780E-02
 14.737  0.784E-02
 14.747  0.790E-02
 14.757  0.794E-02
 14.767  0.800E-02
 14.777  0.804E-02
 14.787  0.808E-02
 14.797  0.812E-02
 14.807  0.816E-02
 14.817  0.820E-02
 14.827  0.822E-02
 14.837  0.826E-02
 14.847  0.828E-02
 14.857  0.830E-02
 14.867  0.842E-02
 14.877  0.876E-02
 14.887  0.922E-02
 14.897  0.978E-02
 14.907  0.104E-01
 14.917  0.109E-01
 14.927  0.114E-01
 14.937  0.118E-01
 14.947  0.119E-01
 14.957  0.118E-01
 14.967  0.113E-01
 14.977  0.105E-01
 14.987  0.926E-02
 14.997  0.750E-02
 15.007  0.520E-02
 15.017  0.230E-02
 15.027  0.000E+00
